# wavelength flux
6495.00000 2.99607e-17
6496.98409 3.00288e-17
6498.96818 3.01645e-17
6500.95227 3.27206e-17
6502.93637 2.84424e-17
6504.92046 2.85146e-17
6506.90455 3.01135e-17
6508.88864 2.98443e-17
6510.87273 3.10279e-17
6512.85682 3.13213e-17
6514.84091 3.17351e-17
6516.82501 2.93550e-17
6518.80910 3.89271e-17
6520.79319 7.38206e-17
6522.77728 7.05693e-17
6524.76137 4.85410e-17
6526.74546 5.86678e-17
6528.72956 5.23103e-17
6530.71365 4.69460e-17
6532.69774 3.99969e-17
6534.68183 3.23823e-17
6536.66592 2.79109e-17
6538.65001 2.42548e-17
6540.63411 2.90398e-17
6542.61820 3.36968e-17
6544.60229 3.10570e-17
6546.58638 2.55582e-17
6548.57047 2.83096e-17
6550.55456 3.30405e-17
6552.53865 3.12700e-17
6554.52275 3.28356e-17
6556.50684 3.02074e-17
6558.49093 3.07884e-17
6560.47502 2.92644e-17
6562.45911 3.09760e-17
6564.44320 2.96330e-17
6566.42729 3.13530e-17
6568.41139 3.13083e-17
6570.39548 2.97893e-17
6572.37957 3.18101e-17
6574.36366 3.17327e-17
6576.34775 2.99303e-17
6578.33184 3.08174e-17
6580.31593 2.95542e-17
6582.30003 2.78856e-17
6584.28412 3.00023e-17
6586.26821 3.11819e-17
6588.25230 3.44310e-17
6590.23639 3.54226e-17
6592.22048 3.85094e-17
6594.20457 3.48164e-17
6596.18867 3.78442e-17
6598.17276 3.71136e-17
6600.15685 3.67230e-17
6602.14094 3.98080e-17
6604.12503 5.25223e-17
6606.10912 6.75796e-17
6608.09322 7.80222e-17
6610.07731 7.91514e-17
6612.06140 7.27000e-17
6614.04549 5.77638e-17
6616.02958 3.93189e-17
6618.01367 2.92035e-17
6619.99777 2.82142e-17
6621.98186 2.92062e-17
6623.96595 3.18609e-17
6625.95004 4.08560e-17
6627.93413 4.41131e-17
6629.91822 4.83180e-17
6631.90231 5.35245e-17
6633.88641 5.00683e-17
6635.87050 4.34466e-17
6637.85459 3.76087e-17
6639.83868 3.36029e-17
6641.82277 2.96808e-17
6643.80686 2.94730e-17
6645.79095 2.87586e-17
6647.77505 2.78256e-17
6649.75914 2.85350e-17
6651.74323 2.90457e-17
6653.72732 2.72085e-17
6655.71141 2.73718e-17
6657.69550 2.98921e-17
6659.67959 2.85492e-17
6661.66369 3.16176e-17
6663.64778 3.11688e-17
6665.63187 2.91045e-17
6667.61596 3.22314e-17
6669.60005 3.05731e-17
6671.58414 2.79791e-17
6673.56824 2.91321e-17
6675.55233 3.20082e-17
6677.53642 2.88248e-17
6679.52051 3.14561e-17
6681.50460 2.93767e-17
6683.48869 2.91394e-17
6685.47278 2.82644e-17
6687.45688 2.89833e-17
6689.44097 2.97995e-17
6691.42506 2.72897e-17
6693.40915 2.78639e-17
6695.39324 2.59944e-17
6697.37733 2.88121e-17
6699.36143 3.05295e-17
6701.34552 2.99010e-17
6703.32961 3.04428e-17
6705.31370 3.12917e-17
6707.29779 2.81028e-17
6709.28188 2.57875e-17
6711.26597 2.95078e-17
6713.25007 2.92281e-17
6715.23416 2.92163e-17
6717.21825 3.09709e-17
6719.20234 3.08181e-17
6721.18643 2.97540e-17
6723.17052 2.99294e-17
6725.15462 2.84427e-17
6727.13871 2.63239e-17
6729.12280 2.71317e-17
6731.10689 2.78780e-17
6733.09098 2.82371e-17
6735.07507 2.90162e-17
6737.05916 3.00542e-17
6739.04325 3.00557e-17
6741.02735 2.92127e-17
6743.01144 3.12817e-17
6744.99553 3.17025e-17
6746.97962 2.85506e-17
6748.96371 2.56270e-17
6750.94780 2.60568e-17
6752.93190 2.67375e-17
6754.91599 2.63918e-17
6756.90008 2.69677e-17
6758.88417 2.90045e-17
6760.86826 3.11140e-17
6762.85235 3.50950e-17
6764.83644 3.58632e-17
6766.82054 3.56573e-17
6768.80463 3.59120e-17
6770.78872 3.11275e-17
6772.77281 2.98921e-17
6774.75690 3.00196e-17
6776.74099 3.42004e-17
6778.72509 3.88645e-17
6780.70918 3.67847e-17
6782.69327 2.98472e-17
6784.67736 3.09055e-17
6786.66145 3.33372e-17
6788.64554 2.94710e-17
6790.62963 2.64020e-17
6792.61373 2.48411e-17
6794.59782 2.75265e-17
6796.58191 2.54743e-17
6798.56600 2.54199e-17
6800.55009 2.58737e-17
6802.53418 2.86077e-17
6804.51828 2.68064e-17
6806.50237 2.60914e-17
6808.48646 2.56475e-17
6810.47055 2.72414e-17
6812.45464 2.63514e-17
6814.43873 2.72423e-17
6816.42282 2.53957e-17
6818.40692 2.48658e-17
6820.39101 2.76230e-17
6822.37510 2.87170e-17
6824.35919 2.71868e-17
6826.34328 2.73464e-17
6828.32737 2.68416e-17
6830.31146 2.40100e-17
6832.29556 2.49671e-17
6834.27965 2.44698e-17
6836.26374 2.75944e-17
6838.24783 2.76974e-17
6840.23192 2.75340e-17
6842.21601 2.50123e-17
6844.20010 2.57070e-17
6846.18420 2.55617e-17
6848.16829 2.76803e-17
6850.15238 2.69538e-17
6852.13647 2.93773e-17
6854.12056 2.50453e-17
6856.10465 2.49802e-17
6858.08875 2.64218e-17
6860.07284 2.40250e-17
6862.05693 2.50204e-17
6864.04102 2.35305e-17
6866.02511 2.18238e-17
6868.00920 2.61424e-17
6869.99330 2.66762e-17
6871.97739 2.64432e-17
6873.96148 2.75430e-17
6875.94557 2.73183e-17
6877.92966 2.81940e-17
6879.91375 2.64946e-17
6881.89784 2.38550e-17
6883.88194 2.44288e-17
6885.86603 2.35157e-17
6887.85012 2.35364e-17
6889.83421 2.71668e-17
6891.81830 2.82705e-17
6893.80239 2.63850e-17
6895.78648 2.62466e-17
6897.77058 2.51750e-17
6899.75467 2.49753e-17
6901.73876 2.77402e-17
6903.72285 2.68838e-17
6905.70694 2.51150e-17
6907.69103 2.57747e-17
6909.67512 2.54804e-17
6911.65922 2.60745e-17
6913.64331 2.74226e-17
6915.62740 2.61636e-17
6917.61149 2.55033e-17
6919.59558 2.63649e-17
6921.57967 2.34399e-17
6923.56376 2.54001e-17
6925.54786 2.75487e-17
6927.53195 2.64271e-17
6929.51604 2.57317e-17
6931.50013 2.66542e-17
6933.48422 2.52281e-17
6935.46831 2.43553e-17
6937.45241 2.77353e-17
6939.43650 2.78883e-17
6941.42059 2.57577e-17
6943.40468 2.51117e-17
6945.38877 2.78294e-17
6947.37286 2.48325e-17
6949.35696 2.58545e-17
6951.34105 2.61350e-17
6953.32514 2.83700e-17
6955.30923 2.84041e-17
6957.29332 2.70026e-17
6959.27741 2.47227e-17
6961.26150 2.48577e-17
6963.24560 2.49138e-17
6965.22969 2.77814e-17
6967.21378 2.73361e-17
6969.19787 2.41705e-17
6971.18196 2.45427e-17
6973.16605 2.71312e-17
6975.15014 2.48445e-17
6977.13424 2.47320e-17
6979.11833 2.52660e-17
6981.10242 2.50169e-17
6983.08651 2.65435e-17
6985.07060 2.52549e-17
6987.05469 2.50240e-17
6989.03878 2.32736e-17
6991.02288 2.30964e-17
6993.00697 2.38650e-17
6994.99106 2.58982e-17
6996.97515 2.63979e-17
6998.95924 2.42275e-17
7000.94333 2.57462e-17
7002.92743 2.68779e-17
7004.91152 2.42273e-17
7006.89561 2.71276e-17
7008.87970 2.80991e-17
7010.86379 2.69949e-17
7012.84788 2.59476e-17
7014.83198 2.54644e-17
7016.81607 2.58928e-17
7018.80016 2.60168e-17
7020.78425 2.44462e-17
7022.76834 2.40054e-17
7024.75243 2.60667e-17
7026.73652 2.43480e-17
7028.72062 2.53658e-17
7030.70471 2.63164e-17
7032.68880 2.52857e-17
7034.67289 2.59073e-17
7036.65698 2.59140e-17
7038.64107 2.81487e-17
7040.62516 2.88384e-17
7042.60926 2.74148e-17
7044.59335 2.66641e-17
7046.57744 2.52797e-17
7048.56153 2.49756e-17
7050.54562 2.58311e-17
7052.52971 2.64940e-17
7054.51380 2.52033e-17
7056.49790 2.51725e-17
7058.48199 2.31631e-17
7060.46608 2.42885e-17
7062.45017 2.58699e-17
7064.43426 2.60006e-17
7066.41835 2.48062e-17
7068.40244 2.59355e-17
7070.38654 2.75459e-17
7072.37063 2.56705e-17
7074.35472 2.59523e-17
7076.33881 2.48398e-17
7078.32290 2.43317e-17
7080.30699 2.38145e-17
7082.29109 2.48914e-17
7084.27518 2.32065e-17
7086.25927 2.45359e-17
7088.24336 2.51050e-17
7090.22745 2.42507e-17
7092.21154 2.49128e-17
7094.19564 2.47265e-17
7096.17973 2.45062e-17
7098.16382 2.23239e-17
7100.14791 2.21806e-17
7102.13200 2.45995e-17
7104.11609 2.47372e-17
7106.10018 2.35670e-17
7108.08428 2.59714e-17
7110.06837 2.41045e-17
7112.05246 2.32824e-17
7114.03655 2.35353e-17
7116.02064 2.68886e-17
7118.00473 2.68509e-17
7119.98883 2.29544e-17
7121.97292 2.43183e-17
7123.95701 2.40034e-17
7125.94110 2.10842e-17
7127.92519 2.45974e-17
7129.90928 2.49683e-17
7131.89337 2.38424e-17
7133.87746 2.34816e-17
7135.86156 2.31280e-17
7137.84565 2.34640e-17
7139.82974 2.46162e-17
7141.81383 2.32786e-17
7143.79792 2.27069e-17
7145.78201 2.61278e-17
7147.76611 2.52949e-17
7149.75020 2.50456e-17
7151.73429 2.67412e-17
7153.71838 2.57195e-17
7155.70247 2.49972e-17
7157.68656 2.53946e-17
7159.67065 2.44260e-17
7161.65475 2.41211e-17
7163.63884 2.37059e-17
7165.62293 2.31064e-17
7167.60702 1.92412e-17
7169.59111 2.12601e-17
7171.57520 2.16135e-17
7173.55930 2.09447e-17
7175.54339 2.28655e-17
7177.52748 2.43444e-17
7179.51157 2.45238e-17
7181.49566 2.46278e-17
7183.47975 2.26118e-17
7185.46384 2.72719e-17
7187.44794 2.68007e-17
7189.43203 2.56833e-17
7191.41612 2.59715e-17
7193.40021 2.43646e-17
7195.38430 2.29796e-17
7197.36839 2.20238e-17
7199.35249 2.16504e-17
7201.33658 2.38788e-17
7203.32067 2.46037e-17
7205.30476 2.56984e-17
7207.28885 2.56283e-17
7209.27294 2.39464e-17
7211.25703 2.41009e-17
7213.24112 2.45676e-17
7215.22522 2.43802e-17
7217.20931 2.33500e-17
7219.19340 2.20682e-17
7221.17749 2.28851e-17
7223.16158 2.42317e-17
7225.14567 2.36300e-17
7227.12977 2.38501e-17
7229.11386 2.38140e-17
7231.09795 2.31822e-17
7233.08204 2.39192e-17
7235.06613 2.62359e-17
7237.05022 2.51164e-17
7239.03431 2.20766e-17
7241.01841 2.37674e-17
7243.00250 2.30860e-17
7244.98659 2.41641e-17
7246.97068 2.50842e-17
7248.95477 2.54343e-17
7250.93886 2.44443e-17
7252.92296 2.38161e-17
7254.90705 2.50583e-17
7256.89114 2.46326e-17
7258.87523 2.35635e-17
7260.85932 2.29130e-17
7262.84341 2.52031e-17
7264.82750 2.44541e-17
7266.81160 2.39225e-17
7268.79569 2.34045e-17
7270.77978 2.14510e-17
7272.76387 2.18542e-17
7274.74796 2.25032e-17
7276.73205 2.51412e-17
7278.71615 2.84379e-17
7280.70024 2.61329e-17
7282.68433 2.35556e-17
7284.66842 2.76833e-17
7286.65251 2.62670e-17
7288.63660 2.64211e-17
7290.62069 2.92935e-17
7292.60479 2.68069e-17
7294.58888 2.53048e-17
7296.57297 2.59572e-17
7298.55706 2.55490e-17
7300.54115 2.63705e-17
7302.52524 2.75981e-17
7304.50933 3.00273e-17
7306.49343 2.78205e-17
7308.47752 2.81889e-17
7310.46161 2.96448e-17
7312.44570 2.81775e-17
7314.42979 2.73701e-17
7316.41388 2.69790e-17
7318.39797 2.80498e-17
7320.38207 2.85343e-17
7322.36616 2.87114e-17
7324.35025 3.08409e-17
7326.33434 3.05447e-17
7328.31843 3.24027e-17
7330.30252 3.16636e-17
7332.28662 2.90141e-17
7334.27071 2.98056e-17
7336.25480 3.00296e-17
7338.23889 3.00220e-17
7340.22298 2.97859e-17
7342.20707 3.08902e-17
7344.19117 3.12646e-17
7346.17526 2.88320e-17
7348.15935 2.99314e-17
7350.14344 3.41245e-17
7352.12753 3.32757e-17
7354.11162 3.19929e-17
7356.09571 3.42922e-17
7358.07981 3.34101e-17
7360.06390 3.35326e-17
7362.04799 3.24479e-17
7364.03208 3.32440e-17
7366.01617 3.36985e-17
7368.00026 3.52147e-17
7369.98435 3.87325e-17
7371.96845 3.57721e-17
7373.95254 3.55253e-17
7375.93663 3.49200e-17
7377.92072 3.63367e-17
7379.90481 3.46552e-17
7381.88890 3.51681e-17
7383.87299 3.43220e-17
7385.85709 3.55436e-17
7387.84118 3.50872e-17
7389.82527 3.62677e-17
7391.80936 3.59076e-17
7393.79345 3.46175e-17
7395.77754 3.40017e-17
7397.76163 3.56727e-17
7399.74573 3.47233e-17
7401.72982 3.48617e-17
7403.71391 3.34288e-17
7405.69800 3.18771e-17
7407.68209 3.36944e-17
7409.66618 3.51641e-17
7411.65028 3.43043e-17
7413.63437 3.36566e-17
7415.61846 3.27900e-17
7417.60255 3.24369e-17
7419.58664 3.26496e-17
7421.57073 3.19311e-17
7423.55483 3.10491e-17
7425.53892 3.24329e-17
7427.52301 3.32476e-17
7429.50710 3.23596e-17
7431.49119 3.17627e-17
7433.47528 3.38747e-17
7435.45937 3.42541e-17
7437.44347 3.27803e-17
7439.42756 3.45142e-17
7441.41165 3.11748e-17
7443.39574 3.19413e-17
7445.37983 2.96939e-17
7447.36392 3.32319e-17
7449.34801 3.15521e-17
7451.33211 3.08990e-17
7453.31620 3.15701e-17
7455.30029 3.03708e-17
7457.28438 3.10963e-17
7459.26847 3.19919e-17
7461.25256 3.03978e-17
7463.23665 3.19460e-17
7465.22075 3.04568e-17
7467.20484 2.96468e-17
7469.18893 2.97204e-17
7471.17302 3.24168e-17
7473.15711 2.88078e-17
7475.14120 3.04396e-17
7477.12530 3.04154e-17
7479.10939 3.13304e-17
7481.09348 2.96010e-17
7483.07757 2.93960e-17
7485.06166 2.79543e-17
7487.04575 3.08753e-17
7489.02985 3.08296e-17
7491.01394 3.01862e-17
7492.99803 2.86794e-17
7494.98212 2.89484e-17
7496.96621 2.98076e-17
7498.95030 2.66009e-17
7500.93439 2.54746e-17
7502.91849 2.75143e-17
7504.90258 2.95906e-17
7506.88667 2.66782e-17
7508.87076 2.72053e-17
7510.85485 2.72281e-17
7512.83894 2.53735e-17
7514.82303 2.76669e-17
7516.80713 2.64557e-17
7518.79122 2.40083e-17
7520.77531 2.23864e-17
7522.75940 1.96325e-17
7524.74349 2.20746e-17
7526.72758 2.37069e-17
7528.71167 2.56199e-17
7530.69577 2.62823e-17
7532.67986 2.42715e-17
7534.66395 2.58253e-17
7536.64804 2.76139e-17
7538.63213 2.60833e-17
7540.61622 2.56185e-17
7542.60031 2.37745e-17
7544.58441 2.28440e-17
7546.56850 2.43251e-17
7548.55259 2.39813e-17
7550.53668 2.43761e-17
7552.52077 2.52059e-17
7554.50486 2.50738e-17
7556.48896 2.43774e-17
7558.47305 2.37570e-17
7560.45714 2.32867e-17
7562.44123 2.23138e-17
7564.42532 2.43105e-17
7566.40941 2.62344e-17
7568.39351 2.25342e-17
7570.37760 2.36944e-17
7572.36169 2.51204e-17
7574.34578 2.26735e-17
7576.32987 2.05600e-17
7578.31396 2.33353e-17
7580.29805 2.38701e-17
7582.28215 2.05525e-17
7584.26624 2.11337e-17
7586.25033 2.13403e-17
7588.23442 2.11731e-17
7590.21851 2.22985e-17
7592.20260 1.87341e-17
7594.18670 1.78046e-17
7596.17079 1.85421e-17
7598.15488 1.79304e-17
7600.13897 1.81936e-17
7602.12306 2.15910e-17
7604.10715 2.06128e-17
7606.09124 1.93464e-17
7608.07534 2.39317e-17
7610.05943 2.88390e-17
7612.04352 3.10715e-17
7614.02761 3.07313e-17
7616.01170 2.50321e-17
7617.99579 2.31535e-17
7619.97988 2.16659e-17
7621.96398 2.06118e-17
7623.94807 2.18846e-17
7625.93216 2.20463e-17
7627.91625 2.17566e-17
7629.90034 2.21435e-17
7631.88443 2.15177e-17
7633.86852 2.25273e-17
7635.85262 2.19129e-17
7637.83671 2.33208e-17
7639.82080 2.24840e-17
7641.80489 2.09964e-17
7643.78898 2.03953e-17
7645.77307 1.93306e-17
7647.75716 2.02162e-17
7649.74126 2.16375e-17
7651.72535 2.12460e-17
7653.70944 2.18718e-17
7655.69353 2.16826e-17
7657.67762 2.07230e-17
7659.66171 2.09489e-17
7661.64581 2.12653e-17
7663.62990 1.96995e-17
7665.61399 1.90286e-17
7667.59808 2.08990e-17
7669.58217 2.22990e-17
7671.56626 2.07359e-17
7673.55036 2.15384e-17
7675.53445 2.40477e-17
7677.51854 2.23480e-17
7679.50263 2.11066e-17
7681.48672 2.23747e-17
7683.47081 2.29340e-17
7685.45490 2.57625e-17
7687.43900 2.37233e-17
7689.42309 2.12844e-17
7691.40718 2.15520e-17
7693.39127 2.40124e-17
7695.37536 2.32044e-17
7697.35945 2.22224e-17
7699.34354 2.40839e-17
7701.32764 2.33971e-17
7703.31173 2.34898e-17
7705.29582 2.39135e-17
7707.27991 2.10114e-17
7709.26400 2.15700e-17
7711.24809 2.13595e-17
7713.23218 2.17484e-17
7715.21628 2.07651e-17
7717.20037 2.41538e-17
7719.18446 2.18086e-17
7721.16855 2.09411e-17
7723.15264 2.18395e-17
7725.13673 1.93636e-17
7727.12082 2.39740e-17
7729.10492 2.16088e-17
7731.08901 2.22540e-17
7733.07310 2.23416e-17
7735.05719 2.13200e-17
7737.04128 2.03234e-17
7739.02537 2.11250e-17
7741.00947 2.28877e-17
7742.99356 2.19927e-17
7744.97765 2.41552e-17
7746.96174 2.31427e-17
7748.94583 2.40180e-17
7750.92992 2.21545e-17
7752.91402 2.08896e-17
7754.89811 2.08153e-17
7756.88220 2.32857e-17
7758.86629 2.03806e-17
7760.85038 1.91256e-17
7762.83447 1.98336e-17
7764.81856 2.35818e-17
7766.80266 2.24021e-17
7768.78675 2.20382e-17
7770.77084 2.38229e-17
7772.75493 2.29053e-17
7774.73902 2.15372e-17
7776.72311 2.13706e-17
7778.70720 2.25262e-17
7780.69130 2.35394e-17
7782.67539 2.08228e-17
7784.65948 2.20239e-17
7786.64357 2.28713e-17
7788.62766 2.29158e-17
7790.61175 2.15811e-17
7792.59584 2.08961e-17
7794.57994 2.55177e-17
7796.56403 2.49066e-17
7798.54812 2.41834e-17
7800.53221 2.30675e-17
7802.51630 2.33406e-17
7804.50039 2.54770e-17
7806.48449 2.20002e-17
7808.46858 2.26207e-17
7810.45267 2.27526e-17
7812.43676 2.16218e-17
7814.42085 2.31467e-17
7816.40494 2.08179e-17
7818.38904 2.43616e-17
7820.37313 2.32571e-17
7822.35722 2.45998e-17
7824.34131 2.45656e-17
7826.32540 2.46467e-17
7828.30949 2.27432e-17
7830.29358 2.23711e-17
7832.27768 2.06605e-17
7834.26177 2.19055e-17
7836.24586 2.52893e-17
7838.22995 2.16208e-17
7840.21404 2.11937e-17
7842.19813 2.11648e-17
7844.18222 2.08455e-17
7846.16632 2.14157e-17
7848.15041 2.13889e-17
7850.13450 2.34838e-17
7852.11859 2.03757e-17
7854.10268 2.13574e-17
7856.08677 2.23774e-17
7858.07086 2.12343e-17
7860.05496 2.08288e-17
7862.03905 2.02842e-17
7864.02314 2.35639e-17
7866.00723 2.04119e-17
7867.99132 2.11650e-17
7869.97541 2.08838e-17
7871.95950 2.24606e-17
7873.94360 2.29627e-17
7875.92769 2.43278e-17
7877.91178 2.31347e-17
7879.89587 2.35161e-17
7881.87996 2.71115e-17
7883.86405 2.38773e-17
7885.84815 2.19926e-17
7887.83224 2.01125e-17
7889.81633 2.15714e-17
7891.80042 2.46982e-17
7893.78451 2.48701e-17
7895.76860 2.22486e-17
7897.75270 2.08115e-17
7899.73679 1.92216e-17
7901.72088 2.22963e-17
7903.70497 2.32711e-17
7905.68906 2.12744e-17
7907.67315 2.14884e-17
7909.65724 2.39732e-17
7911.64134 2.16556e-17
7913.62543 2.14269e-17
7915.60952 2.06556e-17
7917.59361 2.03268e-17
7919.57770 2.21490e-17
7921.56179 1.96084e-17
7923.54589 1.91403e-17
7925.52998 2.02114e-17
7927.51407 2.23026e-17
7929.49816 2.23416e-17
7931.48225 2.13277e-17
7933.46634 2.31571e-17
7935.45043 2.14153e-17
7937.43452 1.78882e-17
7939.41862 1.94051e-17
7941.40271 2.16914e-17
7943.38680 2.32954e-17
7945.37089 2.09797e-17
7947.35498 2.35497e-17
7949.33907 2.22738e-17
7951.32317 1.90329e-17
7953.30726 2.07072e-17
7955.29135 2.16038e-17
7957.27544 2.07687e-17
7959.25953 1.98650e-17
7961.24362 2.19846e-17
7963.22771 2.13694e-17
7965.21181 2.17835e-17
7967.19590 2.18377e-17
7969.17999 1.99437e-17
7971.16408 2.17971e-17
7973.14817 2.38217e-17
7975.13226 2.13882e-17
7977.11636 2.15223e-17
7979.10045 2.22857e-17
7981.08454 2.08841e-17
7983.06863 1.97721e-17
7985.05272 2.04202e-17
7987.03681 1.99356e-17
7989.02090 2.13383e-17
7991.00500 1.99807e-17
7992.98909 2.06974e-17
7994.97318 2.09539e-17
7996.95727 2.11808e-17
7998.94136 2.15072e-17
8000.92545 2.08374e-17
8002.90955 1.89075e-17
8004.89364 2.18032e-17
8006.87773 2.01909e-17
8008.86182 2.09661e-17
8010.84591 2.06808e-17
8012.83000 1.86962e-17
8014.81409 2.06281e-17
8016.79818 2.08549e-17
8018.78228 2.05198e-17
8020.76637 2.10538e-17
8022.75046 2.02177e-17
8024.73455 2.11678e-17
8026.71864 2.11637e-17
8028.70273 2.14041e-17
8030.68683 2.11861e-17
8032.67092 1.90819e-17
8034.65501 1.88508e-17
8036.63910 1.91748e-17
8038.62319 1.86243e-17
8040.60728 2.01684e-17
8042.59137 1.96502e-17
8044.57547 2.11189e-17
8046.55956 2.06166e-17
8048.54365 1.99704e-17
8050.52774 1.97039e-17
8052.51183 1.89234e-17
8054.49592 2.00758e-17
8056.48002 2.23925e-17
8058.46411 1.96668e-17
8060.44820 1.95377e-17
8062.43229 1.99356e-17
8064.41638 2.25087e-17
8066.40047 2.06540e-17
8068.38457 2.20209e-17
8070.36866 2.27556e-17
8072.35275 2.16136e-17
8074.33684 2.11837e-17
8076.32093 1.91853e-17
8078.30502 1.98597e-17
8080.28911 1.93868e-17
8082.27321 1.98851e-17
8084.25730 1.84169e-17
8086.24139 1.96303e-17
8088.22548 1.90216e-17
8090.20957 1.88639e-17
8092.19366 2.32989e-17
8094.17775 2.12429e-17
8096.16185 2.05251e-17
8098.14594 2.06151e-17
8100.13003 2.02626e-17
8102.11412 2.16918e-17
8104.09821 1.87225e-17
8106.08230 1.81824e-17
8108.06639 1.88397e-17
8110.05049 2.06026e-17
8112.03458 1.72478e-17
8114.01867 1.76222e-17
8116.00276 2.01109e-17
8117.98685 2.02401e-17
8119.97094 1.85255e-17
8121.95503 1.93142e-17
8123.93913 1.97139e-17
8125.92322 1.91068e-17
8127.90731 1.92601e-17
8129.89140 1.95832e-17
8131.87549 2.13436e-17
8133.85958 2.18231e-17
8135.84368 2.26096e-17
8137.82777 1.80684e-17
8139.81186 1.75009e-17
8141.79595 1.86629e-17
8143.78004 1.92466e-17
8145.76413 1.87764e-17
8147.74823 1.94725e-17
8149.73232 1.76973e-17
8151.71641 1.72345e-17
8153.70050 1.63179e-17
8155.68459 1.80338e-17
8157.66868 1.90035e-17
8159.65277 1.97273e-17
8161.63687 1.78929e-17
8163.62096 1.94319e-17
8165.60505 2.02865e-17
8167.58914 2.04913e-17
8169.57323 1.92398e-17
8171.55732 1.99193e-17
8173.54141 1.82247e-17
8175.52551 1.74310e-17
8177.50960 1.81665e-17
8179.49369 1.80021e-17
8181.47778 1.83615e-17
8183.46187 1.80266e-17
8185.44596 1.76873e-17
8187.43005 1.88579e-17
8189.41415 2.10626e-17
8191.39824 1.73966e-17
8193.38233 1.80428e-17
8195.36642 1.99572e-17
8197.35051 1.85394e-17
8199.33460 1.82269e-17
8201.31869 2.10254e-17
8203.30279 2.15463e-17
8205.28688 1.94824e-17
8207.27097 1.87885e-17
8209.25506 1.74090e-17
8211.23915 2.08552e-17
8213.22324 2.19423e-17
8215.20734 1.94809e-17
8217.19143 1.92859e-17
8219.17552 1.95865e-17
8221.15961 1.77718e-17
8223.14370 1.68288e-17
8225.12779 1.67987e-17
8227.11189 1.52090e-17
8229.09598 1.61156e-17
8231.08007 1.71679e-17
8233.06416 1.96090e-17
8235.04825 2.15641e-17
8237.03234 1.94629e-17
8239.01643 1.97219e-17
8241.00053 1.98829e-17
8242.98462 1.86146e-17
8244.96871 1.84232e-17
8246.95280 1.81508e-17
8248.93689 1.80068e-17
8250.92098 1.78055e-17
8252.90508 1.72755e-17
8254.88917 1.94514e-17
8256.87326 2.05035e-17
8258.85735 1.89964e-17
8260.84144 1.96300e-17
8262.82553 1.89933e-17
8264.80962 1.93782e-17
8266.79371 1.78179e-17
8268.77781 1.87758e-17
8270.76190 2.08573e-17
8272.74599 1.86417e-17
8274.73008 1.83807e-17
8276.71417 1.58265e-17
8278.69826 1.87988e-17
8280.68236 2.08711e-17
8282.66645 1.64738e-17
8284.65054 1.67239e-17
8286.63463 1.72178e-17
8288.61872 1.97808e-17
8290.60281 2.03530e-17
8292.58691 2.13789e-17
8294.57100 1.94270e-17
8296.55509 2.11438e-17
8298.53918 2.18703e-17
8300.52327 1.94443e-17
8302.50736 1.91931e-17
8304.49145 1.91568e-17
8306.47554 1.85636e-17
8308.45964 1.70696e-17
8310.44373 1.86755e-17
8312.42782 1.95884e-17
8314.41191 1.89603e-17
8316.39600 1.90214e-17
8318.38009 2.07408e-17
8320.36419 1.83192e-17
8322.34828 1.85704e-17
8324.33237 2.05879e-17
8326.31646 1.92426e-17
8328.30055 2.07460e-17
8330.28464 2.11445e-17
8332.26873 1.84093e-17
8334.25283 1.98423e-17
8336.23692 1.91192e-17
8338.22101 1.69667e-17
8340.20510 2.04478e-17
8342.18919 1.96415e-17
8344.17328 1.80048e-17
8346.15738 1.75638e-17
8348.14147 1.82416e-17
8350.12556 1.88570e-17
8352.10965 1.88593e-17
8354.09374 1.92670e-17
8356.07783 1.87330e-17
8358.06192 1.86712e-17
8360.04602 1.72696e-17
8362.03011 1.90552e-17
8364.01420 1.92116e-17
8365.99829 1.86959e-17
8367.98238 2.09506e-17
8369.96647 1.81868e-17
8371.95056 1.83327e-17
8373.93466 2.08360e-17
8375.91875 2.08627e-17
8377.90284 2.18406e-17
8379.88693 1.92479e-17
8381.87102 1.85179e-17
8383.85511 2.02994e-17
8385.83921 1.96032e-17
8387.82330 1.78408e-17
8389.80739 1.99529e-17
8391.79148 2.05927e-17
8393.77557 1.66407e-17
8395.75966 1.72733e-17
8397.74375 1.69903e-17
8399.72785 1.97949e-17
8401.71194 1.93233e-17
8403.69603 1.97376e-17
8405.68012 1.84313e-17
8407.66421 1.89153e-17
8409.64830 1.77770e-17
8411.63240 1.59476e-17
8413.61649 2.02081e-17
8415.60058 1.97523e-17
8417.58467 1.84015e-17
8419.56876 1.93885e-17
8421.55285 1.75227e-17
8423.53694 2.03297e-17
8425.52104 2.20835e-17
8427.50513 1.88379e-17
8429.48922 1.92213e-17
8431.47331 2.05195e-17
8433.45740 2.02933e-17
8435.44149 1.96303e-17
8437.42559 2.15355e-17
8439.40968 1.99136e-17
8441.39377 1.77788e-17
8443.37786 1.87246e-17
8445.36195 1.77063e-17
8447.34604 1.87341e-17
8449.33013 1.98193e-17
8451.31423 1.73547e-17
8453.29832 2.04369e-17
8455.28241 2.11939e-17
8457.26650 1.79689e-17
8459.25059 1.94217e-17
8461.23468 1.99637e-17
8463.21877 1.83762e-17
8465.20287 1.83502e-17
8467.18696 1.91211e-17
8469.17105 1.84627e-17
8471.15514 1.73899e-17
8473.13923 1.67699e-17
8475.12332 1.91412e-17
8477.10742 2.00579e-17
8479.09151 2.02459e-17
8481.07560 1.81718e-17
8483.05969 1.77659e-17
8485.04378 1.93618e-17
8487.02787 1.89456e-17
8489.01196 1.87241e-17
8490.99605 1.87508e-17
8492.98015 1.87066e-17
8494.96424 1.76133e-17
8496.94833 1.72696e-17
8498.93242 1.76590e-17
8500.91651 1.87843e-17
8502.90060 1.80872e-17
8504.88470 1.72422e-17
8506.86879 1.77317e-17
8508.85288 1.86299e-17
8510.83697 1.86695e-17
8512.82106 1.86577e-17
8514.80515 1.99751e-17
8516.78924 1.74266e-17
8518.77334 1.76086e-17
8520.75743 1.98557e-17
8522.74152 1.82225e-17
8524.72561 1.84637e-17
8526.70970 1.82140e-17
8528.69379 1.92656e-17
8530.67789 1.88110e-17
8532.66198 1.79279e-17
8534.64607 1.70311e-17
8536.63016 1.71057e-17
8538.61425 1.89189e-17
8540.59834 1.89309e-17
8542.58244 1.89805e-17
8544.56653 1.87385e-17
8546.55062 1.89232e-17
8548.53471 1.80675e-17
8550.51880 1.89930e-17
8552.50289 2.08031e-17
8554.48698 1.95914e-17
8556.47107 1.77619e-17
8558.45517 1.84814e-17
8560.43926 1.99758e-17
8562.42335 1.58425e-17
8564.40744 2.32900e-17
8566.39153 6.02361e-17
8568.37562 6.53333e-17
8570.35972 1.64925e-17
8572.34381 1.95822e-17
8574.32790 1.93918e-17
8576.31199 1.81439e-17
8578.29608 1.79382e-17
8580.28017 1.71849e-17
8582.26426 1.80384e-17
8584.24836 1.87159e-17
8586.23245 1.91157e-17
8588.21654 1.86673e-17
8590.20063 2.06765e-17
8592.18472 2.16046e-17
8594.16881 1.97551e-17
8596.15291 1.87189e-17
8598.13700 1.56984e-17
8600.12109 1.51149e-17
8602.10518 1.51724e-17
8604.08927 1.48730e-17
8606.07336 1.49549e-17
8608.05745 1.56043e-17
8610.04155 1.61845e-17
8612.02564 1.66941e-17
8614.00973 1.98115e-17
8615.99382 1.99504e-17
8617.97791 1.78004e-17
8619.96200 1.85913e-17
8621.94609 2.13919e-17
8623.93019 2.02453e-17
8625.91428 1.82430e-17
8627.89837 1.97140e-17
8629.88246 2.20999e-17
8631.86655 2.15235e-17
8633.85064 1.93362e-17
8635.83474 1.75825e-17
8637.81883 1.93803e-17
8639.80292 1.89322e-17
8641.78701 1.77179e-17
8643.77110 1.83133e-17
8645.75519 1.72975e-17
8647.73928 1.87860e-17
8649.72338 1.85270e-17
8651.70747 1.86939e-17
8653.69156 1.93860e-17
8655.67565 1.77514e-17
8657.65974 1.81357e-17
8659.64383 2.02431e-17
8661.62793 1.78654e-17
8663.61202 1.75254e-17
8665.59611 1.79315e-17
8667.58020 1.91547e-17
8669.56429 1.95932e-17
8671.54838 1.74056e-17
8673.53247 1.58380e-17
8675.51656 1.67071e-17
8677.50066 2.01384e-17
8679.48475 2.13069e-17
8681.46884 2.05475e-17
8683.45293 1.84739e-17
8685.43702 1.95704e-17
8687.42111 2.02802e-17
8689.40521 2.21013e-17
8691.38930 2.13848e-17
8693.37339 1.93670e-17
8695.35748 2.16253e-17
8697.34157 2.17185e-17
8699.32566 1.98192e-17
8701.30976 2.03736e-17
8703.29385 2.28741e-17
8705.27794 2.07384e-17
8707.26203 2.05795e-17
8709.24612 2.33246e-17
8711.23021 1.98825e-17
8713.21430 1.90115e-17
8715.19840 2.05353e-17
8717.18249 2.25300e-17
8719.16658 2.20017e-17
8721.15067 1.89026e-17
8723.13476 1.85189e-17
8725.11885 1.87805e-17
8727.10295 1.84429e-17
8729.08704 2.06468e-17
8731.07113 1.77842e-17
8733.05522 1.92688e-17
8735.03931 2.24387e-17
8737.02340 2.10643e-17
8739.00749 2.17862e-17
8740.99158 2.02322e-17
8742.97568 1.90818e-17
8744.95977 2.17910e-17
8746.94386 2.05837e-17
8748.92795 1.90771e-17
8750.91204 1.82629e-17
8752.89613 1.91484e-17
8754.88023 1.87419e-17
8756.86432 1.97515e-17
8758.84841 2.02780e-17
8760.83250 2.12442e-17
8762.81659 2.02497e-17
8764.80068 2.07767e-17
8766.78478 2.19659e-17
8768.76887 2.19181e-17
8770.75296 2.17721e-17
8772.73705 2.07220e-17
8774.72114 2.06623e-17
8776.70523 2.13346e-17
8778.68932 2.13947e-17
8780.67341 1.90872e-17
8782.65751 1.88809e-17
8784.64160 2.00330e-17
8786.62569 2.06127e-17
8788.60978 1.87529e-17
8790.59387 2.12105e-17
8792.57796 2.12544e-17
8794.56206 1.82164e-17
8796.54615 1.81618e-17
8798.53024 1.90329e-17
8800.51433 1.86424e-17
8802.49842 1.84565e-17
8804.48251 1.93373e-17
8806.46660 1.67634e-17
8808.45070 1.81881e-17
8810.43479 1.87492e-17
8812.41888 1.81716e-17
8814.40297 1.95170e-17
8816.38706 1.91281e-17
8818.37115 1.97445e-17
8820.35525 1.80050e-17
8822.33934 1.67906e-17
8824.32343 1.81080e-17
8826.30752 1.84506e-17
8828.29161 1.77854e-17
8830.27570 2.09663e-17
8832.25979 2.06439e-17
8834.24389 1.80764e-17
8836.22798 1.95691e-17
8838.21207 2.11619e-17
8840.19616 1.92551e-17
8842.18025 1.83536e-17
8844.16434 1.94960e-17
8846.14843 1.83451e-17
8848.13253 2.02716e-17
8850.11662 2.02512e-17
8852.10071 1.93495e-17
8854.08480 1.87266e-17
8856.06889 1.79736e-17
8858.05298 1.72279e-17
8860.03708 1.92315e-17
8862.02117 2.29711e-17
8864.00526 2.02910e-17
8865.98935 1.95300e-17
8867.97344 2.12586e-17
8869.95753 1.87251e-17
8871.94162 1.84850e-17
8873.92572 1.99730e-17
8875.90981 1.80273e-17
8877.89390 1.66998e-17
8879.87799 1.87232e-17
8881.86208 1.94002e-17
8883.84617 1.77978e-17
8885.83027 1.87165e-17
8887.81436 1.98539e-17
8889.79845 2.06925e-17
8891.78254 1.97835e-17
8893.76663 1.96688e-17
8895.75072 1.96920e-17
8897.73481 1.89131e-17
8899.71891 1.83741e-17
8901.70300 1.82208e-17
8903.68709 1.78753e-17
8905.67118 1.91067e-17
8907.65527 2.01552e-17
8909.63936 2.05516e-17
8911.62346 1.90857e-17
8913.60755 2.07796e-17
8915.59164 2.31528e-17
8917.57573 1.93743e-17
8919.55982 1.78795e-17
8921.54391 1.93075e-17
8923.52800 1.89501e-17
8925.51210 1.84291e-17
8927.49619 1.64936e-17
8929.48028 1.77421e-17
8931.46437 1.75264e-17
8933.44846 1.78339e-17
8935.43255 1.95670e-17
8937.41664 1.97770e-17
8939.40074 2.19170e-17
8941.38483 1.88963e-17
8943.36892 1.85351e-17
8945.35301 1.60862e-17
8947.33710 1.72320e-17
8949.32119 2.00887e-17
8951.30529 1.86433e-17
8953.28938 1.51685e-17
8955.27347 1.70359e-17
8957.25756 1.69589e-17
8959.24165 2.07981e-17
8961.22574 2.01331e-17
8963.20983 1.82710e-17
8965.19392 1.92732e-17
8967.17802 1.64196e-17
8969.16211 1.84387e-17
8971.14620 1.74719e-17
8973.13029 1.73664e-17
8975.11438 1.58121e-17
8977.09847 1.51988e-17
8979.08257 1.76153e-17
8981.06666 1.98522e-17
8983.05075 1.82213e-17
8985.03484 1.33613e-17
8987.01893 1.42571e-17
8989.00302 1.23889e-17
8990.98711 1.42961e-17
8992.97121 1.84220e-17
8994.95530 1.70298e-17
8996.93939 1.61319e-17
8998.92348 1.66039e-17
9000.90757 1.58005e-17
9002.89166 1.56612e-17
9004.87576 1.69591e-17
9006.85985 1.55729e-17
9008.84394 1.29910e-17
9010.82803 1.43490e-17
9012.81212 1.62962e-17
9014.79621 1.65452e-17
9016.78031 1.78149e-17
9018.76440 1.83531e-17
9020.74849 1.63186e-17
9022.73258 1.46392e-17
9024.71667 1.73994e-17
9026.70076 1.71772e-17
9028.68485 1.70576e-17
9030.66894 1.70220e-17
9032.65304 1.52880e-17
9034.63713 1.66862e-17
9036.62122 1.79991e-17
9038.60531 1.66722e-17
9040.58940 1.63538e-17
9042.57349 1.66727e-17
9044.55759 2.01691e-17
9046.54168 1.72423e-17
9048.52577 1.53434e-17
9050.50986 1.55263e-17
9052.49395 1.51091e-17
9054.47804 1.74682e-17
9056.46213 1.69668e-17
9058.44623 1.49407e-17
9060.43032 1.47791e-17
9062.41441 1.55868e-17
9064.39850 1.51244e-17
9066.38259 1.51804e-17
9068.36668 1.47514e-17
9070.35078 1.46322e-17
9072.33487 1.58746e-17
9074.31896 1.62419e-17
9076.30305 1.47002e-17
9078.28714 1.29413e-17
9080.27123 1.29228e-17
9082.25532 1.41435e-17
9084.23942 1.55489e-17
9086.22351 1.61503e-17
9088.20760 1.54854e-17
9090.19169 1.41120e-17
9092.17578 1.64761e-17
9094.15987 1.91840e-17
9096.14396 1.64971e-17
9098.12806 1.46201e-17
9100.11215 1.74276e-17
9102.09624 1.79962e-17
9104.08033 1.53653e-17
9106.06442 1.54411e-17
9108.04851 1.63827e-17
9110.03261 1.53259e-17
9112.01670 1.43446e-17
9114.00079 1.43861e-17
9115.98488 1.30549e-17
9117.96897 1.57706e-17
9119.95306 1.68144e-17
9121.93715 1.43892e-17
9123.92125 1.45176e-17
9125.90534 1.46631e-17
9127.88943 1.45405e-17
9129.87352 1.43725e-17
9131.85761 1.49289e-17
9133.84170 1.44244e-17
9135.82580 1.77189e-17
9137.80989 1.74166e-17
9139.79398 1.61512e-17
9141.77807 1.61248e-17
9143.76216 1.48367e-17
9145.74625 1.48965e-17
9147.73034 1.40790e-17
9149.71444 1.36266e-17
9151.69853 1.26379e-17
9153.68262 1.14458e-17
9155.66671 1.26341e-17
9157.65080 1.49746e-17
9159.63489 1.37048e-17
9161.61898 1.48441e-17
9163.60308 1.46797e-17
9165.58717 1.56784e-17
9167.57126 1.55048e-17
9169.55535 1.22767e-17
9171.53944 1.13157e-17
9173.52353 1.09802e-17
9175.50763 1.33701e-17
9177.49172 1.23148e-17
9179.47581 1.39289e-17
9181.45990 1.40910e-17
9183.44399 1.29656e-17
9185.42808 1.27866e-17
9187.41217 1.35182e-17
9189.39627 1.49951e-17
9191.38036 1.49514e-17
9193.36445 1.54362e-17
9195.34854 1.51535e-17
9197.33263 1.49753e-17
9199.31672 1.38166e-17
9201.30082 1.54327e-17
9203.28491 1.22439e-17
9205.26900 1.24427e-17
9207.25309 1.29642e-17
9209.23718 1.33558e-17
9211.22127 1.30365e-17
9213.20536 1.33548e-17
9215.18945 1.37380e-17
9217.17355 1.38815e-17
9219.15764 1.44498e-17
9221.14173 1.63284e-17
9223.12582 1.41684e-17
9225.10991 1.24604e-17
9227.09400 1.13252e-17
9229.07810 1.18340e-17
9231.06219 1.23658e-17
9233.04628 1.28789e-17
9235.03037 1.30802e-17
9237.01446 1.35651e-17
9238.99855 1.32106e-17
9240.98265 1.33221e-17
9242.96674 1.34607e-17
9244.95083 1.54126e-17
9246.93492 1.58145e-17
9248.91901 1.52309e-17
9250.90310 1.34810e-17
9252.88719 1.31373e-17
9254.87128 1.20818e-17
9256.85538 1.09709e-17
9258.83947 1.15190e-17
9260.82356 1.24011e-17
9262.80765 1.23185e-17
9264.79174 1.30744e-17
9266.77583 1.52385e-17
9268.75993 1.39639e-17
9270.74402 1.31939e-17
9272.72811 1.27996e-17
9274.71220 1.20235e-17
9276.69629 1.03374e-17
9278.68038 1.06430e-17
9280.66447 1.18705e-17
9282.64857 1.08234e-17
9284.63266 8.88517e-18
9286.61675 9.74569e-18
9288.60084 1.24951e-17
9290.58493 1.29687e-17
9292.56902 1.22843e-17
9294.55312 1.08091e-17
9296.53721 1.19239e-17
9298.52130 1.36179e-17
9300.50539 1.27313e-17
9302.48948 1.32533e-17
9304.47357 1.15689e-17
9306.45766 9.83100e-18
9308.44176 7.93429e-18
9310.42585 6.68981e-18
9312.40994 8.75907e-18
9314.39403 1.21449e-17
9316.37812 1.40855e-17
9318.36221 1.21717e-17
9320.34630 1.36625e-17
9322.33040 1.18912e-17
9324.31449 8.42681e-18
9326.29858 8.60284e-18
9328.28267 1.11495e-17
9330.26676 8.62805e-18
9332.25085 7.70149e-18
9334.23495 8.57982e-18
9336.21904 6.86449e-18
9338.20313 1.00150e-17
9340.18722 9.04437e-18
9342.17131 8.72261e-18
9344.15540 1.02047e-17
9346.13949 1.52069e-17
9348.12359 1.25485e-17
9350.10768 1.01010e-17
9352.09177 8.96521e-18
9354.07586 7.22776e-18
9356.05995 9.80715e-18
9358.04404 1.12617e-17
9360.02814 1.14964e-17
9362.01223 1.01157e-17
9363.99632 1.01555e-17
9365.98041 9.58676e-18
9367.96450 9.31213e-18
9369.94859 1.03605e-17
9371.93268 1.23280e-17
9373.91678 9.32734e-18
9375.90087 7.35898e-18
9377.88496 2.34838e-18
9379.86905 8.72268e-18
9381.85314 1.16470e-17
9383.83723 9.88003e-18
9385.82133 8.03504e-18
9387.80542 9.48802e-18
9389.78951 1.12028e-17
9391.77360 1.29390e-17
9393.75769 1.23417e-17
9395.74178 1.13739e-17
9397.72587 1.07049e-17
9399.70997 1.01843e-17
9401.69406 1.15542e-17
9403.67815 1.00962e-17
9405.66224 1.00022e-17
9407.64633 1.05576e-17
9409.63042 1.12762e-17
9411.61451 1.14270e-17
9413.59861 1.22461e-17
9415.58270 9.65493e-18
9417.56679 7.80375e-18
9419.55088 1.06759e-17
9421.53497 1.19709e-17
9423.51906 9.69577e-18
9425.50316 7.05674e-18
9427.48725 9.53696e-18
9429.47134 1.12914e-17
9431.45543 1.20642e-17
9433.43952 1.12945e-17
9435.42361 8.18591e-18
9437.40770 1.03759e-17
9439.39179 9.24772e-18
9441.37589 6.00705e-18
9443.35998 9.52574e-18
9445.34407 1.29264e-17
9447.32816 1.10888e-17
9449.31225 9.85419e-18
9451.29634 1.00962e-17
9453.28044 9.26978e-18
9455.26453 7.77289e-18
9457.24862 8.47724e-18
9459.23271 7.73946e-18
9461.21680 1.26902e-17
9463.20089 1.48113e-17
9465.18498 1.15278e-17
9467.16908 1.06606e-17
9469.15317 1.10236e-17
9471.13726 1.00456e-17
9473.12135 9.00252e-18
9475.10544 1.01996e-17
9477.08953 8.59886e-18
9479.07363 8.56228e-18
9481.05772 1.11149e-17
9483.04181 9.83780e-18
9485.02590 9.38261e-18
9487.00999 1.04844e-17
9488.99408 1.13683e-17
9490.97818 9.73588e-18
9492.96227 7.32814e-18
9494.94636 8.91177e-18
9496.93045 1.02216e-17
9498.91454 7.49642e-18
9500.89863 7.76436e-18
9502.88272 1.06271e-17
9504.86681 1.16554e-17
9506.85091 1.23953e-17
9508.83500 1.18803e-17
9510.81909 1.14057e-17
9512.80318 1.10796e-17
9514.78727 1.05226e-17
9516.77136 8.58306e-18
9518.75546 8.25928e-18
9520.73955 9.04025e-18
9522.72364 9.81558e-18
9524.70773 9.65849e-18
9526.69182 1.02314e-17
9528.67591 9.51293e-18
9530.66000 9.70460e-18
9532.64410 9.07551e-18
9534.62819 1.07853e-17
9536.61228 1.17378e-17
9538.59637 1.04595e-17
9540.58046 1.08260e-17
9542.56455 1.15458e-17
9544.54865 1.06391e-17
9546.53274 1.22160e-17
9548.51683 1.42196e-17
9550.50092 1.12431e-17
9552.48501 7.77571e-18
9554.46910 7.90492e-18
9556.45319 9.13834e-18
9558.43729 9.91421e-18
9560.42138 8.58643e-18
9562.40547 8.56955e-18
9564.38956 5.58721e-18
9566.37365 8.79967e-18
9568.35774 1.08333e-17
9570.34183 1.11699e-17
9572.32593 1.31147e-17
9574.31002 1.24577e-17
9576.29411 1.04439e-17
9578.27820 1.11231e-17
9580.26229 9.45071e-18
9582.24638 9.93742e-18
9584.23048 1.16139e-17
9586.21457 1.16204e-17
9588.19866 8.84809e-18
9590.18275 8.50826e-18
9592.16684 1.05945e-17
9594.15093 9.21382e-18
9596.13502 9.90498e-18
9598.11912 8.77154e-18
9600.10321 1.39136e-17
9602.08730 1.32273e-17
9604.07139 7.36409e-18
9606.05548 5.18506e-18
9608.03957 6.73611e-18
9610.02367 1.15513e-17
9612.00776 1.50418e-17
9613.99185 1.38288e-17
9615.97594 9.89841e-18
9617.96003 9.04668e-18
9619.94412 7.92560e-18
9621.92821 8.06373e-18
9623.91231 9.24012e-18
9625.89640 1.07326e-17
9627.88049 8.33819e-18
9629.86458 1.11196e-17
9631.84867 1.19946e-17
9633.83276 1.00229e-17
9635.81685 1.24372e-17
9637.80095 1.29723e-17
9639.78504 1.10317e-17
9641.76913 9.57991e-18
9643.75322 1.01428e-17
9645.73731 9.62668e-18
9647.72140 1.02406e-17
9649.70550 9.66891e-18
9651.68959 1.00241e-17
9653.67368 1.19486e-17
9655.65777 1.05957e-17
9657.64186 9.16346e-18
9659.62595 8.70757e-18
9661.61004 9.26924e-18
9663.59414 1.11142e-17
9665.57823 1.05709e-17
9667.56232 1.09192e-17
9669.54641 1.20382e-17
9671.53050 1.49222e-17
9673.51459 1.62180e-17
9675.49869 1.20975e-17
9677.48278 1.05885e-17
9679.46687 9.88133e-18
9681.45096 1.15397e-17
9683.43505 1.12281e-17
9685.41914 8.46452e-18
9687.40323 1.19845e-17
9689.38732 1.30678e-17
9691.37142 1.02969e-17
9693.35551 1.23375e-17
9695.33960 1.22779e-17
9697.32369 1.00817e-17
9699.30778 1.23633e-17
9701.29187 1.13160e-17
9703.27597 1.49115e-17
9705.26006 1.49414e-17
9707.24415 1.40293e-17
9709.22824 1.17340e-17
9711.21233 8.89144e-18
9713.19642 9.44658e-18
9715.18052 1.38879e-17
9717.16461 1.20864e-17
9719.14870 9.39395e-18
9721.13279 1.15833e-17
9723.11688 1.16967e-17
9725.10097 1.21994e-17
9727.08506 1.14553e-17
9729.06915 1.31921e-17
9731.05325 1.32888e-17
9733.03734 1.20797e-17
9735.02143 1.18179e-17
9737.00552 1.26704e-17
9738.98961 1.18148e-17
9740.97370 1.19468e-17
9742.95780 1.34810e-17
9744.94189 1.53261e-17
9746.92598 1.35099e-17
9748.91007 1.12729e-17
9750.89416 1.13474e-17
9752.87825 1.01213e-17
9754.86234 8.65686e-18
9756.84644 1.12982e-17
9758.83053 1.19641e-17
9760.81462 1.12914e-17
9762.79871 1.15069e-17
9764.78280 1.08137e-17
9766.76689 1.30863e-17
9768.75099 1.34024e-17
9770.73508 1.37252e-17
9772.71917 1.20024e-17
9774.70326 1.24489e-17
9776.68735 1.22367e-17
9778.67144 1.16847e-17
9780.65553 8.62737e-18
9782.63963 1.00164e-17
9784.62372 9.38832e-18
9786.60781 1.29840e-17
9788.59190 1.47201e-17
9790.57599 1.07360e-17
9792.56008 1.24324e-17
9794.54418 1.34747e-17
9796.52827 1.41836e-17
9798.51236 1.53493e-17
9800.49645 1.39731e-17
9802.48054 1.20219e-17
9804.46463 1.33663e-17
9806.44872 1.45900e-17
9808.43282 1.11695e-17
9810.41691 9.24335e-18
9812.40100 1.29525e-17
9814.38509 1.29758e-17
9816.36918 1.07543e-17
9818.35327 1.09879e-17
9820.33736 1.19214e-17
9822.32146 1.18418e-17
9824.30555 1.17223e-17
9826.28964 1.17987e-17
9828.27373 1.25988e-17
9830.25782 1.50591e-17
9832.24191 1.31857e-17
9834.22601 1.10003e-17
9836.21010 1.32839e-17
9838.19419 1.44618e-17
9840.17828 1.38214e-17
9842.16237 1.13846e-17
9844.14646 9.64641e-18
9846.13055 1.21503e-17
9848.11465 1.32743e-17
9850.09874 1.21928e-17
9852.08283 1.38248e-17
9854.06692 1.49907e-17
9856.05101 1.32414e-17
9858.03510 1.11865e-17
9860.01920 1.35925e-17
9862.00329 1.36631e-17
9863.98738 1.41595e-17
9865.97147 1.24170e-17
9867.95556 1.52638e-17
9869.93965 1.55011e-17
9871.92374 9.98531e-18
9873.90783 1.14823e-17
9875.89193 1.41798e-17
9877.87602 1.19964e-17
9879.86011 1.11060e-17
9881.84420 1.20200e-17
9883.82829 1.21436e-17
9885.81238 1.33081e-17
9887.79648 1.10771e-17
9889.78057 1.36508e-17
9891.76466 1.48652e-17
9893.74875 1.30897e-17
9895.73284 1.17516e-17
9897.71693 1.29157e-17
9899.70103 1.17000e-17
9901.68512 1.28292e-17
9903.66921 9.18928e-18
9905.65330 1.07695e-17
9907.63739 8.64662e-18
9909.62148 1.20247e-17
9911.60557 1.16442e-17
9913.58966 9.54599e-18
9915.57376 1.25214e-17
9917.55785 1.56431e-17
9919.54194 1.44203e-17
9921.52603 1.30961e-17
9923.51012 1.22883e-17
9925.49422 1.45452e-17
9927.47831 1.18682e-17
9929.46240 1.29163e-17
9931.44649 1.34512e-17
9933.43058 1.30139e-17
9935.41467 1.08977e-17
9937.39876 9.65734e-18
9939.38285 1.17526e-17
9941.36695 1.32207e-17
9943.35104 8.91546e-18
9945.33513 8.02443e-18
9947.31922 1.44200e-17
9949.30331 1.66265e-17
9951.28740 1.51832e-17
9953.27150 1.32245e-17
9955.25559 1.03003e-17
9957.23968 1.22475e-17
9959.22377 1.43857e-17
9961.20786 1.28382e-17
9963.19195 1.30614e-17
9965.17605 1.38181e-17
9967.16014 1.10467e-17
9969.14423 1.01921e-17
9971.12832 1.11472e-17
9973.11241 1.21961e-17
9975.09650 1.41374e-17
9977.08059 1.26900e-17
9979.06468 1.06496e-17
9981.04878 1.22330e-17
9983.03287 1.38859e-17
9985.01696 1.28037e-17
9987.00105 1.05884e-17
9988.98514 1.34170e-17
9990.96923 1.51684e-17
9992.95333 1.42145e-17
9994.93742 1.57212e-17
9996.92151 1.18338e-17
9998.90560 8.63591e-18
10000.88969 9.16349e-18
10002.87378 9.71493e-18
10004.85787 1.21422e-17
10006.84197 1.22949e-17
10008.82606 9.63621e-18
10010.81015 8.33240e-18
10012.79424 1.25204e-17
10014.77833 1.42553e-17
10016.76242 1.46948e-17
10018.74652 1.38084e-17
10020.73061 1.34424e-17
10022.71470 1.27453e-17
10024.69879 1.27128e-17
10026.68288 1.23245e-17
10028.66697 1.01588e-17
10030.65106 1.09900e-17
10032.63516 1.03634e-17
10034.61925 1.20421e-17
10036.60334 1.17361e-17
10038.58743 1.22564e-17
10040.57152 1.23004e-17
10042.55561 1.07816e-17
10044.53970 9.54020e-18
10046.52380 9.68154e-18
10048.50789 1.29414e-17
10050.49198 1.27701e-17
10052.47607 8.47007e-18
10054.46016 8.81582e-18
10056.44425 1.06539e-17
10058.42835 7.30750e-18
